Day fraction since midnight on 	Accumulator pressure (Pa)	DO probe (mg/L)	Source pressure (Pa)	air valve control ()	Max calibration pressure (Pa)	source pressure (Pa)	Max calibration pressure ()	Delta P ()	air flow rate(R * T )/ V ()	Fill time (s)	air fill model (Pa)
0.6237143949	42147.0468750000	0.1424892545	97351.9218750000	0.0323308223	58411.1531250000	97351.9218750000	58411.1531250000	53411.1531250000	552.1500000000	96.7330492167	58411.1531250000
0.6237723436	42104.1875000000	0.1192906499	97319.2187500000	0.0323242075	58391.5312500000	97319.2187500000	58391.5312500000	53391.5312500000	552.1500000000	96.6975119986	58391.5312500000
0.6238302182	42064.5546875000	0.1024105251	97288.6406250000	0.0323135892	58373.1843750000	97288.6406250000	58373.1843750000	53373.1843750000	552.1500000000	96.6642839355	58373.1843750000
0.6238879995	42034.7851562500	0.0820163861	97238.6796875000	0.0323384062	58343.2078125000	97238.6796875000	58343.2078125000	53343.2078125000	552.1500000000	96.6099933216	58343.2078125000
0.6239459108	41733.9804687500	0.0608162694	97186.7031250000	0.0322715985	58312.0218750000	97186.7031250000	58312.0218750000	53312.0218750000	552.1500000000	96.5535124060	7517.5767529011
0.6240037912	41506.5039062500	0.0465093255	97151.4218750000	0.0322939850	58290.8531250000	97151.4218750000	58290.8531250000	53290.8531250000	552.1500000000	96.5151736394	10274.2818956614
0.6240616260	41074.2968750000	0.0789147690	97106.4453125000	0.0321568530	58263.8671875000	97106.4453125000	58263.8671875000	53263.8671875000	552.1500000000	96.4662993525	13032.3055728912
0.6241195290	40740.7343750000	0.2067105621	97085.9609375000	0.0320118361	58251.5765625000	97085.9609375000	58251.5765625000	53251.5765625000	552.1500000000	96.4440397763	15805.7556821585
0.6241774117	40255.0546875000	0.3759312332	97064.3203125000	0.0319057346	58238.5921875000	97064.3203125000	58238.5921875000	53238.5921875000	552.1500000000	96.4205237481	18566.0041230202
0.6242353167	39732.4375000000	0.5608058572	97050.3281250000	0.0317800840	58230.1968750000	97050.3281250000	58230.1968750000	53230.1968750000	552.1500000000	96.4053189803	21318.4121809006
0.6242931850	38729.7734375000	0.7400291562	97031.3281250000	0.0314023929	58218.7968750000	97031.3281250000	58218.7968750000	53218.7968750000	552.1500000000	96.3846724169	24071.2364933729
0.6243510093	36784.4453125000	0.9009446502	97018.5468750000	0.0311691964	58211.1281250000	97018.5468750000	58211.1281250000	53211.1281250000	552.1500000000	96.3707835280	26848.6511577606
0.6244088281	35817.4804687500	1.0843765736	97042.0937500000	0.0308588065	58225.2562500000	97042.0937500000	58225.2562500000	53225.2562500000	552.1500000000	96.3963710043	29601.4254459619
0.6244667910	35691.1367187500	1.2482526302	97047.9218750000	0.0311676216	58228.7531250000	97047.9218750000	58228.7531250000	53228.7531250000	552.1500000000	96.4027042018	32355.6125248909
0.6245245748	38177.7617187500	1.3840799332	97065.1250000000	0.0317356422	58239.0750000000	97065.1250000000	58239.0750000000	53239.0750000000	552.1500000000	96.4213981708	35123.2298041582
0.6245824711	38935.9023437500	1.5200515985	97053.6328125000	0.0314561098	58232.1796875000	97053.6328125000	58232.1796875000	53232.1796875000	552.1500000000	96.4089100561	37879.6966734171
0.6246403528	38077.5468750000	1.6299730539	97071.7890625000	0.0316314099	58243.0734375000	97071.7890625000	58243.0734375000	53243.0734375000	552.1500000000	96.4286397492	40657.5834089518
0.6246981812	38884.4296875000	1.7286571264	97078.0390625000	0.0314473704	58246.8234375000	97078.0390625000	58246.8234375000	53246.8234375000	552.1500000000	96.4354313819	43399.7762474060
0.6247560359	36687.5351562500	1.8677562475	97078.4531250000	0.0309837265	58247.0718750000	97078.4531250000	58247.0718750000	53247.0718750000	552.1500000000	96.4358813275	46166.4030461073
0.6248139162	35284.2968750000	2.0247006416	97096.5937500000	0.0309752299	58257.9562500000	97096.5937500000	58257.9562500000	53257.9562500000	552.1500000000	96.4555940415	48926.4592884541
0.6248718665	37464.5000000000	2.1619367599	97124.7421875000	0.0315880435	58274.8453125000	97124.7421875000	58274.8453125000	53274.8453125000	552.1500000000	96.4861818573	51685.4897699595
0.6249296797	38964.3632812500	2.2751190662	97129.4921875000	0.0314918502	58277.6953125000	97129.4921875000	58277.6953125000	53277.6953125000	552.1500000000	96.4913434981	54449.0929964066
0.6249876316	36904.3867187500	2.4036314487	97162.0390625000	0.0309725107	58297.2234375000	97162.0390625000	58297.2234375000	53297.2234375000	552.1500000000	96.5267109255	57212.6430391550
0.6250454992	35326.9648437500	2.5580046177	97183.6718750000	0.0309739592	58310.2031250000	97183.6718750000	58310.2031250000	53310.2031250000	552.1500000000	96.5502184642	58310.2031250000
0.6251033829	37289.2265625000	2.7038974762	97246.0625000000	0.0314957522	58347.6375000000	97246.0625000000	58347.6375000000	53347.6375000000	552.1500000000	96.6180159377	58347.6375000000
0.6251612008	39447.7968750000	2.8429248333	97286.7343750000	0.0317177018	58372.0406250000	97286.7343750000	58372.0406250000	53372.0406250000	552.1500000000	96.6622124875	58372.0406250000
0.6252191170	37989.5859375000	2.9379873276	97309.8437500000	0.0311262665	58385.9062500000	97309.8437500000	58385.9062500000	53385.9062500000	552.1500000000	96.6873245495	58385.9062500000
0.6252769749	35696.1250000000	3.0475554466	97361.9375000000	0.0307112918	58417.1625000000	97361.9375000000	58417.1625000000	53417.1625000000	552.1500000000	96.7439328081	58417.1625000000
0.6253347955	36689.2226562500	3.1592562199	97417.3750000000	0.0313532050	58450.4250000000	97417.3750000000	58450.4250000000	53450.4250000000	552.1500000000	96.8041745902	58450.4250000000
0.6253927122	39115.1718750000	3.2412800789	97436.8359375000	0.0317657155	58462.1015625000	97436.8359375000	58462.1015625000	53462.1015625000	552.1500000000	96.8253220366	58462.1015625000
0.6254505925	38701.8046875000	3.3086822033	97477.9609375000	0.0312210231	58486.7765625000	97477.9609375000	58486.7765625000	53486.7765625000	552.1500000000	96.8700109798	58486.7765625000
0.6255084832	37538.0664062500	3.3992156982	97509.3125000000	0.0314631940	58505.5875000000	97509.3125000000	58505.5875000000	53505.5875000000	552.1500000000	96.9040795074	58505.5875000000
0.6255662290	39457.7773437500	3.5608620644	97497.6484375000	0.0317079191	58498.5890625000	97497.6484375000	58498.5890625000	53498.5890625000	552.1500000000	96.8914046228	58498.5890625000
0.6256241378	38322.1523437500	3.6767120361	97503.6953125000	0.0311271285	58502.2171875000	97503.6953125000	58502.2171875000	53502.2171875000	552.1500000000	96.8979755275	58502.2171875000
0.6256820802	36238.0390625000	3.7620153427	97510.7656250000	0.0308151730	58506.4593750000	97510.7656250000	58506.4593750000	53506.4593750000	552.1500000000	96.9056585620	58506.4593750000
0.6257399476	36220.4375000000	3.8790349960	97558.3046875000	0.0311213387	58534.9828125000	97558.3046875000	58534.9828125000	53534.9828125000	552.1500000000	96.9573174183	58534.9828125000
0.6257977457	38277.8671875000	3.9780147076	97532.4921875000	0.0315459345	58519.4953125000	97532.4921875000	58519.4953125000	53519.4953125000	552.1500000000	96.9292679752	58519.4953125000
0.6258556274	39885.2031250000	4.0654592514	97531.9453125000	0.0317679578	58519.1671875000	97531.9453125000	58519.1671875000	53519.1671875000	552.1500000000	96.9286737073	58519.1671875000
0.6259135591	38240.9257812500	4.1665148735	97518.2656250000	0.0311083976	58510.9593750000	97518.2656250000	58510.9593750000	53510.9593750000	552.1500000000	96.9138085212	58510.9593750000
0.6259713623	36416.6875000000	4.2452468872	97551.0156250000	0.0310740480	58530.6093750000	97551.0156250000	58530.6093750000	53530.6093750000	552.1500000000	96.9493966766	58530.6093750000
0.6260292730	38306.1679687500	4.3778233528	97579.5937500000	0.0315995770	58547.7562500000	97579.5937500000	58547.7562500000	53547.7562500000	552.1500000000	96.9804514172	58547.7562500000
0.6260870674	39988.4375000000	4.5035705566	97590.9140625000	0.0317990813	58554.5484375000	97590.9140625000	58554.5484375000	53554.5484375000	552.1500000000	96.9927527619	58554.5484375000
0.6261449567	39170.4023437500	4.6312413216	97612.9843750000	0.0312885096	58567.7906250000	97612.9843750000	58567.7906250000	53567.7906250000	552.1500000000	97.0167357149	58567.7906250000
0.6262029010	36886.8476562500	4.7332134247	97638.0000000000	0.0309273241	58582.8000000000	97638.0000000000	58582.8000000000	53582.8000000000	552.1500000000	97.0439192248	58582.8000000000
0.6262607818	36498.5312500000	4.8305144310	97676.8750000000	0.0312082215	58606.1250000000	97676.8750000000	58606.1250000000	53606.1250000000	552.1500000000	97.0861631803	58606.1250000000
0.6263185836	38876.7539062500	4.9113717079	97714.8359375000	0.0315913305	58628.9015625000	97714.8359375000	58628.9015625000	53628.9015625000	552.1500000000	97.1274138595	58628.9015625000
0.6263765218	39888.6679687500	4.9634308815	97749.3437500000	0.0314919636	58649.6062500000	97749.3437500000	58649.6062500000	53649.6062500000	552.1500000000	97.1649121616	58649.6062500000
0.6264343780	37663.5312500000	5.0333409309	97805.7812500000	0.0309140019	58683.4687500000	97805.7812500000	58683.4687500000	53683.4687500000	552.1500000000	97.2262406049	58683.4687500000
0.6264922642	36396.2734375000	5.0934600830	97858.1796875000	0.0310707365	58714.9078125000	97858.1796875000	58714.9078125000	53714.9078125000	552.1500000000	97.2831799556	58714.9078125000
0.6265500785	38668.7656250000	5.1643028259	97928.6406250000	0.0315445753	58757.1843750000	97928.6406250000	58757.1843750000	53757.1843750000	552.1500000000	97.3597471249	58757.1843750000
0.6266079126	40313.5976562500	5.2125782967	97990.4453125000	0.0317834368	58794.2671875000	97990.4453125000	58794.2671875000	53794.2671875000	552.1500000000	97.4269078828	58794.2671875000
0.6266658212	39432.4687500000	5.2444519997	98020.2734375000	0.0312202161	58812.1640625000	98020.2734375000	58812.1640625000	53812.1640625000	552.1500000000	97.4593209499	58812.1640625000
0.6267236715	36998.5117187500	5.3713517189	98097.3125000000	0.0308187892	58858.3875000000	98097.3125000000	58858.3875000000	53858.3875000000	552.1500000000	97.5430363126	58858.3875000000
0.6267815866	37897.3867187500	5.4642992020	98172.7890625000	0.0313305387	58903.6734375000	98172.7890625000	58903.6734375000	53903.6734375000	552.1500000000	97.6250537671	58903.6734375000
0.6268394935	39996.4921875000	5.5483660698	98211.4921875000	0.0316589009	58926.8953125000	98211.4921875000	58926.8953125000	53926.8953125000	552.1500000000	97.6671109526	58926.8953125000
0.6268973571	40198.6562500000	5.6462917328	98275.0156250000	0.0313066985	58965.0093750000	98275.0156250000	58965.0093750000	53965.0093750000	552.1500000000	97.7361394096	58965.0093750000
0.6269551674	37763.6562500000	5.7489500046	98324.1875000000	0.0308177549	58994.5125000000	98324.1875000000	58994.5125000000	53994.5125000000	552.1500000000	97.7895725799	58994.5125000000
0.6270130717	38085.0585937500	5.8284549713	98363.3359375000	0.0312829047	59018.0015625000	98363.3359375000	59018.0015625000	54018.0015625000	552.1500000000	97.8321136693	59018.0015625000
0.6270709904	40616.4804687500	5.9049210548	98377.4453125000	0.0316625683	59026.4671875000	98377.4453125000	59026.4671875000	54026.4671875000	552.1500000000	97.8474457801	59026.4671875000
0.6271287793	39270.2148437500	5.9544210434	98420.3281250000	0.0310951367	59052.1968750000	98420.3281250000	59052.1968750000	54052.1968750000	552.1500000000	97.8940448701	59052.1968750000
0.6271866139	37325.8828125000	6.0050063133	98467.8281250000	0.0308789566	59080.6968750000	98467.8281250000	59080.6968750000	54080.6968750000	552.1500000000	97.9456612786	59080.6968750000
0.6272445490	38901.3906250000	6.0665087700	98515.5000000000	0.0314075438	59109.3000000000	98515.5000000000	59109.3000000000	54109.3000000000	552.1500000000	97.9974644571	59109.3000000000
