Day fraction since midnight on 	Accumulator pressure (Pa)	DO probe (mg/L)	Source pressure (Pa)	air valve control ()	Max calibration pressure (Pa)	source pressure (Pa)	Max calibration pressure ()	Delta P ()	air flow rate(R * T )/ V ()	Fill time (s)	air fill model (Pa)
0.6417940218	30506.2109375000	0.7778314948	101101.5000000000	0.0243993379	60660.9000000000	101101.5000000000	60660.9000000000	55660.9000000000	613.5000000000	90.7268133659	12256.1129527092
0.6418519087	30546.2695312500	0.7965636253	100965.8515625000	0.0244047237	60579.5109375000	100965.8515625000	60579.5109375000	55579.5109375000	613.5000000000	90.5941498574	15312.1307735443
0.6419098950	30615.1503906250	0.9155431390	100793.3203125000	0.0245394145	60475.9921875000	100793.3203125000	60475.9921875000	55475.9921875000	613.5000000000	90.4254151385	18379.6489109993
0.6419677651	30825.8027343750	1.0678205490	100608.3750000000	0.0245015596	60365.0250000000	100608.3750000000	60365.0250000000	55365.0250000000	613.5000000000	90.2445395273	21447.0722656250
0.6420255610	30878.1308593750	1.2426605225	100435.3046875000	0.0246718117	60261.1828125000	100435.3046875000	60261.1828125000	55261.1828125000	613.5000000000	90.0752776080	24523.0187613964
0.6420834361	32384.0996093750	1.4454634190	100239.3984375000	0.0251962844	60143.6390625000	100239.3984375000	60143.6390625000	55143.6390625000	613.5000000000	89.8836822535	27590.7890679836
0.6421414129	34763.4492187500	1.6568245888	100030.5546875000	0.0253090468	60018.3328125000	100030.5546875000	60018.3328125000	55018.3328125000	613.5000000000	89.6794340872	30662.6935441494
0.6421992744	34852.9218750000	1.8767054081	99817.9531250000	0.0253035409	59890.7718750000	99817.9531250000	59890.7718750000	54890.7718750000	613.5000000000	89.4715107987	33718.5762116909
0.6422570760	34869.5429687500	2.0999591351	99597.5859375000	0.0254411708	59758.5515625000	99597.5859375000	59758.5515625000	54758.5515625000	613.5000000000	89.2559927669	36782.5016703606
0.6423150399	34672.6250000000	2.3186237812	99420.7812500000	0.0254343320	59652.4687500000	99420.7812500000	59652.4687500000	54652.4687500000	613.5000000000	89.0830786471	39867.2521452904
0.6423729276	34087.1914062500	2.5208811760	99216.3984375000	0.0251969819	59529.8390625000	99216.3984375000	59529.8390625000	54529.8390625000	613.5000000000	88.8831932559	42917.1052792072
0.6424307735	30698.1171875000	2.7271740437	98988.4140625000	0.0247947551	59393.0484375000	98988.4140625000	59393.0484375000	54393.0484375000	613.5000000000	88.6602256520	45983.2856330872
0.6424885689	29154.1289062500	2.9200513363	98764.9453125000	0.0247832940	59258.9671875000	98764.9453125000	59258.9671875000	54258.9671875000	613.5000000000	88.4416743073	49053.0624687672
0.6425464668	31039.8535156250	3.1626632214	98495.5078125000	0.0253623390	59097.3046875000	98495.5078125000	59097.3046875000	54097.3046875000	613.5000000000	88.1781657498	52134.3764810562
0.6426043644	31070.2128906250	3.3966944218	98246.4062500000	0.0249520457	58947.8437500000	98246.4062500000	58947.8437500000	53947.8437500000	613.5000000000	87.9345456398	55184.6780781746
0.6426623030	28828.8554687500	3.7109460831	98046.4218750000	0.0247270272	58827.8531250000	98046.4218750000	58827.8531250000	53827.8531250000	613.5000000000	87.7389618989	58262.0451462269
