Day fraction since midnight on 	Accumulator pressure (Pa)	DO probe (mg/L)	Source pressure (Pa)	air valve control ()	Max calibration pressure (Pa)	source pressure (Pa)	Max calibration pressure ()	Delta P ()	air flow rate(R * T )/ V ()	Fill time (s)	air fill model (Pa)
0.6267885283	27775.8789062500	-0.0125770597	98172.7890625000	0.0331388347	58903.6734375000	98172.7890625000	58903.6734375000	53903.6734375000	858.9000000000	62.7589631360	58903.6734375000
0.6268463890	27747.1386718750	-0.0434515402	98211.4921875000	0.0330983885	58926.8953125000	98211.4921875000	58926.8953125000	53926.8953125000	858.9000000000	62.7859998981	5670.1846370220
0.6269042474	28144.5136718750	-0.0719477758	98275.0156250000	0.0334130887	58965.0093750000	98275.0156250000	58965.0093750000	53965.0093750000	858.9000000000	62.8303753347	9990.0754357815
0.6269620530	29521.7636718750	-0.0841178522	98324.1875000000	0.0333851643	58994.5125000000	98324.1875000000	58994.5125000000	53994.5125000000	858.9000000000	62.8647252299	14287.8952921391
0.6270200406	29142.5683593750	-0.0186028630	98363.3359375000	0.0332562754	59018.0015625000	98363.3359375000	59018.0015625000	54018.0015625000	858.9000000000	62.8920730731	18582.6406158447
0.6270778412	28817.7109375000	0.1519369483	98377.4453125000	0.0332272939	59026.4671875000	98377.4453125000	59026.4671875000	54026.4671875000	858.9000000000	62.9019294301	22855.4890582085
0.6271357132	28246.2753906250	0.3992342055	98420.3281250000	0.0330902261	59052.1968750000	98420.3281250000	59052.1968750000	54052.1968750000	858.9000000000	62.9318859879	27164.9689578056
0.6271935325	27601.9531250000	0.6625667214	98467.8281250000	0.0330006449	59080.6968750000	98467.8281250000	59080.6968750000	54080.6968750000	858.9000000000	62.9650679648	31465.7462139606
0.6272514656	27246.9570312500	0.8956178427	98515.5000000000	0.0329684250	59109.3000000000	98515.5000000000	59109.3000000000	54109.3000000000	858.9000000000	62.9983700081	35747.8600289345
0.6273093393	27285.6093750000	1.1185959578	98559.8671875000	0.0330040024	59135.9203125000	98559.8671875000	59135.9203125000	54135.9203125000	858.9000000000	63.0293635027	40051.6270397663
0.6273672053	27630.3164062500	1.3765803576	98586.0546875000	0.0330347944	59151.6328125000	98586.0546875000	59151.6328125000	54151.6328125000	858.9000000000	63.0476572506	44329.6092595100
0.6274250728	27578.3437500000	1.6140754223	98590.2031250000	0.0329809053	59154.1218750000	98590.2031250000	59154.1218750000	54154.1218750000	858.9000000000	63.0505552160	48641.3302464485
0.6274828818	27251.1347656250	1.8185827732	98584.8203125000	0.0329056985	59150.8921875000	98584.8203125000	59150.8921875000	54150.8921875000	858.9000000000	63.0467949558	52929.6525122643
0.6275408190	27110.5566406250	2.0479016304	98556.5468750000	0.0328841877	59133.9281250000	98556.5468750000	59133.9281250000	54133.9281250000	858.9000000000	63.0270440389	57202.3920128822
0.6275986892	26934.6972656250	2.2669138908	98507.6171875000	0.0328950088	59104.5703125000	98507.6171875000	59104.5703125000	54104.5703125000	858.9000000000	62.9928633281	59104.5703125000
0.6276565885	26907.7070312500	2.4551112652	98475.6093750000	0.0328284247	59085.3656250000	98475.6093750000	59085.3656250000	54085.3656250000	858.9000000000	62.9705036966	59085.3656250000
0.6277143870	26826.4902343750	2.6426758766	98437.5937500000	0.0328781174	59062.5562500000	98437.5937500000	59062.5562500000	54062.5562500000	858.9000000000	62.9439471999	59062.5562500000
0.6277722831	27720.0097656250	2.8365981579	98373.0546875000	0.0330730903	59023.8328125000	98373.0546875000	59023.8328125000	54023.8328125000	858.9000000000	62.8988622802	59023.8328125000
0.6278301431	29515.1718750000	3.0270869732	98320.1250000000	0.0336406679	58992.0750000000	98320.1250000000	58992.0750000000	53992.0750000000	858.9000000000	62.8618872977	58992.0750000000
0.6278880277	29708.3808593750	3.2062788010	98261.7265625000	0.0333929903	58957.0359375000	98261.7265625000	58957.0359375000	53957.0359375000	858.9000000000	62.8210920218	58957.0359375000
0.6279458744	28806.4804687500	3.4082260132	98202.9843750000	0.0333117670	58921.7906250000	98202.9843750000	58921.7906250000	53921.7906250000	858.9000000000	62.7800566131	58921.7906250000
0.6280037703	28493.9433593750	3.5736095905	98151.1171875000	0.0333221929	58890.6703125000	98151.1171875000	58890.6703125000	53890.6703125000	858.9000000000	62.7438238590	58890.6703125000
0.6280616355	30887.7871093750	3.7335989475	98090.4375000000	0.0338761575	58854.2625000000	98090.4375000000	58854.2625000000	53854.2625000000	858.9000000000	62.7014349750	58854.2625000000
0.6281194959	30835.2480468750	3.9113898277	98029.9687500000	0.0336944847	58817.9812500000	98029.9687500000	58817.9812500000	53817.9812500000	858.9000000000	62.6591934451	58817.9812500000
0.6281773554	30253.4921875000	4.0686178207	97994.0234375000	0.0336143034	58796.4140625000	97994.0234375000	58796.4140625000	53796.4140625000	858.9000000000	62.6340832024	58796.4140625000
0.6282352306	29808.3222656250	4.2200994492	97968.9296875000	0.0335813072	58781.3578125000	97968.9296875000	58781.3578125000	53781.3578125000	858.9000000000	62.6165535132	58781.3578125000
0.6282930679	29337.7363281250	4.3908157349	97948.9921875000	0.0334240289	58769.3953125000	97948.9921875000	58769.3953125000	53769.3953125000	858.9000000000	62.6026258150	58769.3953125000
0.6283510266	28848.0761718750	4.5177822113	97920.1875000000	0.0333840548	58752.1125000000	97920.1875000000	58752.1125000000	53752.1125000000	858.9000000000	62.5825037839	58752.1125000000
0.6284088938	28779.0292968750	4.6784305573	97867.6640625000	0.0334810895	58720.5984375000	97867.6640625000	58720.5984375000	53720.5984375000	858.9000000000	62.5458125946	58720.5984375000
0.6284667671	28938.7265625000	4.8502006531	97861.1875000000	0.0334619333	58716.7125000000	97861.1875000000	58716.7125000000	53716.7125000000	858.9000000000	62.5412882757	58716.7125000000
0.6285246389	28526.8730468750	5.0186634064	97810.4062500000	0.0333182183	58686.2437500000	97810.4062500000	58686.2437500000	53686.2437500000	858.9000000000	62.5058141227	58686.2437500000
