Day fraction since midnight on 	Accumulator pressure (Pa)	DO probe (mg/L)	Source pressure (Pa)	air valve control ()	Max calibration pressure (Pa)	source pressure (Pa)	Max calibration pressure ()	Delta P ()	air flow rate(R * T )/ V ()	Fill time (s)	air fill model (Pa)
0.6406874388	29329.7890625000	0.1591031402	97876.4609375000	0.0488819068	58725.8765625000	97876.4609375000	58725.8765625000	53725.8765625000	981.6000000000	54.7329630832	58725.8765625000
0.6407453131	29260.9687500000	0.0872737169	97814.9687500000	0.0488842068	58688.9812500000	97814.9687500000	58688.9812500000	53688.9812500000	981.6000000000	54.6953761716	58688.9812500000
0.6408032073	30006.7363281250	0.0179586690	97754.5859375000	0.0496233832	58652.7515625000	97754.5859375000	58652.7515625000	53652.7515625000	981.6000000000	54.6584673620	9731.8930351257
0.6408610259	31677.5078125000	-0.0167127382	97675.4375000000	0.0493623240	58605.2625000000	97675.4375000000	58605.2625000000	53605.2625000000	981.6000000000	54.6100881214	14634.4925201416
0.6409188813	29899.8437500000	0.1035991684	97551.4062500000	0.0492639881	58530.8437500000	97551.4062500000	58530.8437500000	53530.8437500000	981.6000000000	54.5342743989	19522.7060779572
0.6409768039	29971.1816406250	0.3565426767	97487.4531250000	0.0493677513	58492.4718750000	97487.4531250000	58492.4718750000	53492.4718750000	981.6000000000	54.4951832467	24445.9429443359
0.6410346208	31429.5292968750	0.6468761563	97666.7734375000	0.0496714492	58600.0640625000	97666.7734375000	58600.0640625000	53600.0640625000	981.6000000000	54.6047922397	29348.0317722321
0.6410925382	30405.2050781250	0.9486083388	98297.2031250000	0.0488253849	58978.3218750000	98297.2031250000	58978.3218750000	53978.3218750000	981.6000000000	54.9901404595	34258.8663639069
0.6411503734	30130.9511718750	1.2579519749	98954.7734375000	0.0488130834	59372.8640625000	98954.7734375000	59372.8640625000	54372.8640625000	981.6000000000	55.3920783033	39155.9169578552
0.6412082931	31665.6308593750	1.5587242842	99670.2812500000	0.0489778792	59802.1687500000	99670.2812500000	59802.1687500000	54802.1687500000	981.6000000000	55.8294302669	44106.8552177429
0.6412660553	32242.5234375000	1.8418320417	100357.6015625000	0.0487039742	60214.5609375000	100357.6015625000	60214.5609375000	55214.5609375000	981.6000000000	56.2495527073	48967.1338184357
0.6413240084	32241.6660156250	2.1166698933	100976.7421875000	0.0484685538	60586.0453125000	100976.7421875000	60586.0453125000	55586.0453125000	981.6000000000	56.6280005221	53890.8541942596
0.6413818025	32379.6816406250	2.3865671158	101525.0625000000	0.0482598232	60915.0375000000	101525.0625000000	60915.0375000000	55915.0375000000	981.6000000000	56.9631596373	58794.5555004120
0.6414397260	32206.0390625000	2.6469454765	101950.9921875000	0.0479698285	61170.5953125000	101950.9921875000	61170.5953125000	56170.5953125000	981.6000000000	57.2235078571	61170.5953125000
0.6414975397	32588.0351562500	2.9042644501	101800.8125000000	0.0481021879	61080.4875000000	101800.8125000000	61080.4875000000	56080.4875000000	981.6000000000	57.1317109821	61080.4875000000
0.6415554266	32606.7753906250	3.1559407711	101612.3359375000	0.0483462378	60967.4015625000	101612.3359375000	60967.4015625000	55967.4015625000	981.6000000000	57.0165052593	60967.4015625000
0.6416133095	32816.8789062500	3.4006786346	101477.2890625000	0.0481918035	60886.3734375000	101477.2890625000	60886.3734375000	55886.3734375000	981.6000000000	56.9339582697	60886.3734375000
0.6416711503	31404.5957031250	3.6322646141	101351.7109375000	0.0480988359	60811.0265625000	101351.7109375000	60811.0265625000	55811.0265625000	981.6000000000	56.8571990246	60811.0265625000
0.6417291062	31631.3613281250	3.8450703621	101243.5625000000	0.0481954613	60746.1375000000	101243.5625000000	60746.1375000000	55746.1375000000	981.6000000000	56.7910936227	60746.1375000000
0.6417869001	31546.1406250000	4.0589866638	101101.5000000000	0.0481502762	60660.9000000000	101101.5000000000	60660.9000000000	55660.9000000000	981.6000000000	56.7042583537	60660.9000000000
0.6418448242	31642.7480468750	4.2642712593	100965.8515625000	0.0482138922	60579.5109375000	100965.8515625000	60579.5109375000	55579.5109375000	981.6000000000	56.6213436609	60579.5109375000
0.6419027265	31494.3496093750	4.4589180946	100793.3203125000	0.0481903552	60475.9921875000	100793.3203125000	60475.9921875000	55475.9921875000	981.6000000000	56.5158844616	60475.9921875000
0.6419605235	31377.5507812500	4.6421914101	100608.3750000000	0.0482847440	60365.0250000000	100608.3750000000	60365.0250000000	55365.0250000000	981.6000000000	56.4028372046	60365.0250000000
0.6420184437	31344.4843750000	4.8133258820	100435.3046875000	0.0484024524	60261.1828125000	100435.3046875000	60261.1828125000	55261.1828125000	981.6000000000	56.2970485050	60261.1828125000
0.6420762479	31286.0371093750	4.9710602760	100239.3984375000	0.0483904816	60143.6390625000	100239.3984375000	60143.6390625000	55143.6390625000	981.6000000000	56.1773014084	60143.6390625000
