Day fraction since midnight on 	Accumulator pressure (Pa)	DO probe (mg/L)	Source pressure (Pa)	air valve control ()	Max calibration pressure (Pa)	source pressure (Pa)	Max calibration pressure ()	Delta P ()	air flow rate(R * T )/ V ()	Fill time (s)	air fill model (Pa)
0.6387786680	36541.9687500000	1.6182639599	96879.8281250000	0.0852641940	58127.8968750000	96879.8281250000	58127.8968750000	53127.8968750000	1227.0000000000	43.2990194580	58127.8968750000
0.6388363872	36527.4101562500	1.3904508352	96945.9921875000	0.0852012225	58167.5953125000	96945.9921875000	58167.5953125000	53167.5953125000	1227.0000000000	43.3313735228	58167.5953125000
0.6388940197	36535.6093750000	1.1778026819	97875.5078125000	0.0844423872	58725.3046875000	97875.5078125000	58725.3046875000	53725.3046875000	1227.0000000000	43.7859043908	58725.3046875000
0.6389505056	36525.7109375000	0.9745335579	98964.0078125000	0.0835541096	59378.4046875000	98964.0078125000	59378.4046875000	54378.4046875000	1227.0000000000	44.3181782294	59378.4046875000
0.6390102202	36536.9218750000	0.7750229239	100128.3671875000	0.0826339492	60077.0203125000	100128.3671875000	60077.0203125000	55077.0203125000	1227.0000000000	44.8875471170	60077.0203125000
0.6390679248	36515.3203125000	0.5912185907	101146.6406250000	0.0818570145	60687.9843750000	101146.6406250000	60687.9843750000	55687.9843750000	1227.0000000000	45.3854803382	60687.9843750000
0.6391258629	36526.3906250000	0.4273844361	101334.7500000000	0.0817361130	60800.8500000000	101334.7500000000	60800.8500000000	55800.8500000000	1227.0000000000	45.4774653627	60800.8500000000
0.6391839441	36914.7929687500	0.2828258574	101159.8437500000	0.0825860954	60695.9062500000	101159.8437500000	60695.9062500000	55695.9062500000	1227.0000000000	45.3919366341	10023.7157926559
0.6392415921	37016.8710937500	0.1998651773	100985.0312500000	0.0828452949	60591.0187500000	100985.0312500000	60591.0187500000	55591.0187500000	1227.0000000000	45.3064537490	16134.8703050613
0.6392998609	36900.0898437500	0.3433202505	100792.4062500000	0.0822135686	60475.4437500000	100792.4062500000	60475.4437500000	55475.4437500000	1227.0000000000	45.2122605949	22324.6465892792
0.6393576092	37077.4023437500	0.5686804056	100596.5546875000	0.0830205181	60357.9328125000	100596.5546875000	60357.9328125000	55357.9328125000	1227.0000000000	45.1164896597	28446.7028822899
0.6394155598	37298.6250000000	0.7802921534	100404.3281250000	0.0827338413	60242.5968750000	100404.3281250000	60242.5968750000	55242.5968750000	1227.0000000000	45.0224913407	34590.2058382034
0.6394733126	38203.4687500000	1.0722007751	100223.6406250000	0.0841439396	60134.1843750000	100223.6406250000	60134.1843750000	55134.1843750000	1227.0000000000	44.9341355949	40700.4634242058
0.6395308752	38899.9296875000	1.3729815483	100029.3515625000	0.0843459491	60017.6109375000	100029.3515625000	60017.6109375000	55017.6109375000	1227.0000000000	44.8391287184	46805.1229724884
0.6395891199	38706.8007812500	1.6603987217	99849.5859375000	0.0843218782	59909.7515625000	99849.5859375000	59909.7515625000	54909.7515625000	1227.0000000000	44.7512237673	52977.5060224533
0.6396463598	38297.4140625000	1.9284796715	99749.8281250000	0.0837244926	59849.8968750000	99749.8281250000	59849.8968750000	54849.8968750000	1227.0000000000	44.7024424409	59045.6964144707
0.6397043646	36208.5156250000	2.1849505901	99627.4453125000	0.0824019130	59776.4671875000	99627.4453125000	59776.4671875000	54776.4671875000	1227.0000000000	44.6425975448	59776.4671875000
0.6397627866	35662.2851562500	2.4131143093	99520.2421875000	0.0822348775	59712.1453125000	99520.2421875000	59712.1453125000	54712.1453125000	1227.0000000000	44.5901754788	59712.1453125000
0.6398206021	36893.9648437500	2.6388337612	99411.8515625000	0.0828712068	59647.1109375000	99411.8515625000	59647.1109375000	54647.1109375000	1227.0000000000	44.5371727282	59647.1109375000
0.6398780385	36555.0312500000	2.8541257381	99274.6250000000	0.0830255561	59564.7750000000	99274.6250000000	59564.7750000000	54564.7750000000	1227.0000000000	44.4700692747	59564.7750000000
0.6399359435	36689.1171875000	3.0676267147	99206.0703125000	0.0830993191	59523.6421875000	99206.0703125000	59523.6421875000	54523.6421875000	1227.0000000000	44.4365462001	59523.6421875000
0.6399941753	36244.1835937500	3.2766578197	99050.7890625000	0.0827979653	59430.4734375000	99050.7890625000	59430.4734375000	54430.4734375000	1227.0000000000	44.3606140485	59430.4734375000
0.6400514041	36337.1093750000	3.4757108688	98962.2031250000	0.0835318122	59377.3218750000	98962.2031250000	59377.3218750000	54377.3218750000	1227.0000000000	44.3172957416	59377.3218750000
0.6401096481	36662.3476562500	3.6712844372	98860.6718750000	0.0839182797	59316.4031250000	98860.6718750000	59316.4031250000	54316.4031250000	1227.0000000000	44.2676472086	59316.4031250000
0.6401674295	36757.8007812500	3.8388395309	98749.6718750000	0.0838650816	59249.8031250000	98749.6718750000	59249.8031250000	54249.8031250000	1227.0000000000	44.2133684800	59249.8031250000
0.6402252670	37539.5742187500	4.0083570480	98630.6484375000	0.0848859230	59178.3890625000	98630.6484375000	59178.3890625000	54178.3890625000	1227.0000000000	44.1551663101	59178.3890625000
0.6402833231	37965.6640625000	4.1930661201	98547.0859375000	0.0844161804	59128.2515625000	98547.0859375000	59128.2515625000	54128.2515625000	1227.0000000000	44.1143044519	59128.2515625000
0.6403410622	38917.9843750000	4.3691120148	98450.2421875000	0.0857074631	59070.1453125000	98450.2421875000	59070.1453125000	54070.1453125000	1227.0000000000	44.0669480949	59070.1453125000
0.6403994632	38952.3554687500	4.5233430862	98327.5078125000	0.0862307476	58996.5046875000	98327.5078125000	58996.5046875000	53996.5046875000	1227.0000000000	44.0069312857	58996.5046875000
0.6404572667	38923.2265625000	4.6763057709	98229.4218750000	0.0850033193	58937.6531250000	98229.4218750000	58937.6531250000	53937.6531250000	1227.0000000000	43.9589675020	58937.6531250000
0.6405150745	38654.6210937500	4.8090753555	98142.8437500000	0.0857983163	58885.7062500000	98142.8437500000	58885.7062500000	53885.7062500000	1227.0000000000	43.9166310106	58885.7062500000
